ppm,intensity
-158.23,0.18
-158.15,0.18
-158.07,1.06
-157.99,1.95
-157.91,1.88
-157.83,1.8
-157.75,-0.04
-157.67,-1.89
-157.59,-0.27
-157.51,1.34
-157.43,0
-157.35,-1.34
-157.26,-1.68
-157.18,-2.02
-157.1,-0.59
-157.02,0.84
-156.94,0.6
-156.86,0.36
-156.78,0.12
-156.7,-0.12
-156.62,-0.14
-156.54,-0.15
-156.46,-0.17
-156.38,-0.19
-156.3,-0.39
-156.21,-0.58
-156.13,1
-156.05,2.58
-155.97,1.65
-155.89,0.71
-155.81,-0.22
-155.73,-1.15
-155.65,-1.25
-155.57,-1.35
-155.49,0.32
-155.41,2
-155.33,0.64
-155.25,-0.71
-155.16,-0.3
-155.08,0.12
-155,0.34
-154.92,0.55
-154.84,0.77
-154.76,0.98
-154.68,0.75
-154.6,0.52
-154.52,0.3
-154.44,0.07
-154.36,-0.89
-154.28,-1.85
-154.2,0.14
-154.12,2.14
-154.03,0.96
-153.95,-0.22
-153.87,-1.4
-153.79,-2.58
-153.71,-2.54
-153.63,-2.49
-153.55,-0.67
-153.47,1.15
-153.39,0.05
-153.31,-1.04
-153.23,0.81
-153.15,2.67
-153.07,3.16
-152.98,3.64
-152.9,0
-152.82,-3.65
-152.74,-2.76
-152.66,-1.87
-152.58,-2.75
-152.5,-3.63
-152.42,-2.27
-152.34,-0.92
-152.26,0.44
-152.18,1.79
-152.1,1.12
-152.02,0.44
-151.94,-0.24
-151.85,-0.91
-151.77,-0.63
-151.69,-0.34
-151.61,-0.06
-151.53,0.22
-151.45,0.51
-151.37,0.79
-151.29,1.08
-151.21,1.36
-151.13,1.63
-151.05,1.91
-150.97,2.18
-150.89,2.46
-150.8,1.77
-150.72,1.09
-150.64,-1.37
-150.56,-3.83
-150.48,-5.07
-150.4,-6.31
-150.32,-3.42
-150.24,-0.52
-150.16,0.49
-150.08,1.5
-150,0.74
-149.92,-0.02
-149.84,-0.38
-149.76,-0.74
-149.67,-1.11
-149.59,-1.47
-149.51,-1.76
-149.43,-2.05
-149.35,-2.34
-149.27,-2.63
-149.19,-3.75
-149.11,-4.88
-149.03,-3.05
-148.95,-1.22
-148.87,-0.68
-148.79,-0.15
-148.71,-1.38
-148.62,-2.62
-148.54,-2.74
-148.46,-2.86
-148.38,-1.2
-148.3,0.45
-148.22,-0.26
-148.14,-0.97
-148.06,0.09
-147.98,1.16
-147.9,2.54
-147.82,3.92
-147.74,1.17
-147.66,-1.59
-147.58,-0.24
-147.49,1.11
-147.41,-0.5
-147.33,-2.11
-147.25,-1.6
-147.17,-1.08
-147.09,-0.57
-147.01,-0.05
-146.93,0.83
-146.85,1.71
-146.77,0.83
-146.69,-0.06
-146.61,-0.18
-146.53,-0.31
-146.44,-0.43
-146.36,-0.55
-146.28,0.66
-146.2,1.86
-146.12,1.3
-146.04,0.73
-145.96,1.7
-145.88,2.67
-145.8,3.63
-145.72,4.6
-145.64,1.84
-145.56,-0.93
-145.48,1.63
-145.4,4.18
-145.31,3.69
-145.23,3.19
-145.15,4.47
-145.07,5.75
-144.99,2.96
-144.91,0.18
-144.83,0.35
-144.75,0.52
-144.67,-0.86
-144.59,-2.24
-144.51,-0.67
-144.43,0.9
-144.35,-0.63
-144.26,-2.16
-144.18,-1.91
-144.1,-1.67
-144.02,-0.68
-143.94,0.3
-143.86,-1.66
-143.78,-3.63
-143.7,-2.5
-143.62,-1.36
-143.54,-0.23
-143.46,0.91
-143.38,0.67
-143.3,0.44
-143.22,0.21
-143.13,-0.02
-143.05,-0.22
-142.97,-0.41
-142.89,1.17
-142.81,2.74
-142.73,2.79
-142.65,2.84
-142.57,2.88
-142.49,2.93
-142.41,1.35
-142.33,-0.23
-142.25,-0.03
-142.17,0.16
-142.08,0.23
-142,0.31
-141.92,0.38
-141.84,0.45
-141.76,-0.36
-141.68,-1.17
-141.6,-0.21
-141.52,0.75
-141.44,0.56
-141.36,0.37
-141.28,0.18
-141.2,-0.02
-141.12,-0.84
-141.04,-1.66
-140.95,-2.47
-140.87,-3.29
-140.79,-1.98
-140.71,-0.67
-140.63,0.65
-140.55,1.96
-140.47,1.46
-140.39,0.97
-140.31,0.47
-140.23,-0.03
-140.15,0.34
-140.07,0.71
-139.99,2.62
-139.9,4.54
-139.82,4.28
-139.74,0.47
-139.66,-1.67
-139.58,-0.27
-139.5,1.68
-139.42,1.86
-139.34,0.31
-139.26,-1.25
-139.18,-0.81
-139.1,-0.37
-139.02,0.07
-138.94,0.51
-138.86,0.64
-138.77,0.77
-138.69,-0.88
-138.61,-2.52
-138.53,-2.25
-138.45,-1.97
-138.37,0.08
-138.29,2.13
-138.21,1.13
-138.13,0.13
-138.05,-0.87
-137.97,-1.87
-137.89,-1.72
-137.81,-1.57
-137.72,0.34
-137.64,2.26
-137.56,1.14
-137.48,0.01
-137.4,0.66
-137.32,1.31
-137.24,1.13
-137.16,0.94
-137.08,-0.13
-137,-1.2
-136.92,-1.34
-136.84,-1.49
-136.76,-1.64
-136.68,-1.78
-136.59,-0.34
-136.51,1.1
-136.43,1.43
-136.35,1.77
-136.27,1.26
-136.19,-2.79
-136.11,-5.07
-136.03,-3.81
-135.95,-2.32
-135.87,-0.83
-135.79,-0.01
-135.71,0.81
-135.63,-1.26
-135.54,-3.34
-135.46,-2.46
-135.38,-1.58
-135.3,-2.44
-135.22,-3.3
-135.14,-2.38
-135.06,-1.47
-134.98,-0.89
-134.9,-0.31
-134.82,-0.62
-134.74,-0.93
-134.66,-1.23
-134.58,-1.54
-134.5,-0.08
-134.41,1.39
-134.33,1.02
-134.25,0.66
-134.17,-0.59
-134.09,-1.84
-134.01,-2.33
-133.93,-2.83
-133.85,-1.55
-133.77,-0.27
-133.69,1.1
-133.61,2.47
-133.53,3.1
-133.45,0.18
-133.36,-1.63
-133.28,0.11
-133.2,3.4
-133.12,3.14
-133.04,2.74
-132.96,2.33
-132.88,3.48
-132.8,4.62
-132.72,3.31
-132.64,2
-132.56,0.69
-132.48,-0.62
-132.4,-0.06
-132.32,0.5
-132.23,1.94
-132.15,3.38
-132.07,2.05
-131.99,0.73
-131.91,1.17
-131.83,1.62
-131.75,1.29
-131.67,0.96
-131.59,1.51
-131.51,2.07
-131.43,0.5
-131.35,-1.06
-131.27,-0.86
-131.18,-0.65
-131.1,-0.18
-131.02,0.3
-130.94,0.77
-130.86,1.24
-130.78,0.39
-130.7,-0.47
-130.62,0.23
-130.54,0.93
-130.46,2.08
-130.38,-0.3
-130.3,-2.69
-130.22,-1.54
-130.13,-0.56
-130.05,0.41
-129.97,1.38
-129.89,2.36
-129.81,2.97
-129.73,0.03
-129.65,-2.9
-129.57,-2.29
-129.49,-1.09
-129.41,0.12
-129.33,1.32
-129.25,2.52
-129.17,3.12
-129.09,0.16
-129,-0.79
-128.92,-1.75
-128.84,-2.19
-128.76,-2.63
-128.68,-1.3
-128.6,0.03
-128.52,-1.16
-128.44,-2.36
-128.36,-1.78
-128.28,-1.2
-128.2,-1.66
-128.12,-2.11
-128.04,-0.8
-127.95,0.52
-127.87,1.52
-127.79,2.53
-127.71,0.57
-127.63,-1.38
-127.55,-1
-127.47,-0.63
-127.39,-0.25
-127.31,0.12
-127.23,1.19
-127.15,2.27
-127.07,0.38
-126.99,-1.5
-126.91,-1.79
-126.82,-2.09
-126.74,-0.61
-126.66,0.87
-126.58,1.69
-126.5,2.52
-126.42,1.57
-126.34,0.62
-126.26,-0.46
-126.18,-1.54
-126.1,-1.74
-126.02,-1.93
-125.94,-1.85
-125.86,-1.78
-125.77,-1.7
-125.69,-1.63
-125.61,0.11
-125.53,1.85
-125.45,0.63
-125.37,-0.59
-125.29,0.28
-125.21,1.15
-125.13,1.13
-125.05,1.11
-124.97,0.41
-124.89,-0.29
-124.81,-0.1
-124.73,0.09
-124.64,0.07
-124.56,0.05
-124.48,-0.86
-124.4,-1.76
-124.32,-0.56
-124.24,0.64
-124.16,-1.12
-124.08,-2.87
-124,-1.27
-123.92,0.33
-123.84,0.15
-123.76,-0.03
-123.68,0.33
-123.59,0.69
-123.51,-0.72
-123.43,-2.13
-123.35,-1.66
-123.27,-1.18
-123.19,0.18
-123.11,1.54
-123.03,0.76
-122.95,-0.02
-122.87,-1.68
-122.79,-3.35
-122.71,-1.42
-122.63,0.52
-122.55,0.68
-122.46,0.84
-122.38,-0.03
-122.3,-0.9
-122.22,0
-122.14,0.9
-122.06,0.34
-121.98,-0.21
-121.9,0.12
-121.82,0.45
-121.74,-0.22
-121.66,-0.88
-121.58,0.22
-121.5,1.33
-121.41,1.42
-121.33,1.51
-121.25,0.72
-121.17,-0.08
-121.09,-0.76
-121.01,-1.45
-120.93,-0.36
-120.85,0.73
-120.77,0.01
-120.69,-0.7
-120.61,-0.53
-120.53,-0.36
-120.45,-0.16
-120.37,0.05
-120.28,1.14
-120.2,2.24
-120.12,2.98
-120.04,3.72
-119.96,2.69
-119.88,1.66
-119.8,0.46
-119.72,-0.73
-119.64,1.02
-119.56,2.78
-119.48,1.98
-119.4,1.19
-119.32,0.39
-119.23,-0.41
-119.15,-0.76
-119.07,-1.12
-118.99,1.48
-118.91,4.08
-118.83,2.36
-118.75,0.64
-118.67,-1.08
-118.59,-2.8
-118.51,-1.16
-118.43,0.48
-118.35,-0.83
-118.27,-2.15
-118.19,-3.54
-118.1,-4.94
-118.02,-3.37
-117.94,-1.81
-117.86,-1.71
-117.78,-1.61
-117.7,-1.5
-117.62,-1.4
-117.54,-1.08
-117.46,-0.75
-117.38,-1.31
-117.3,-1.88
-117.22,-1.61
-117.14,-1.34
-117.05,0.7
-116.97,2.74
-116.89,3.01
-116.81,3.27
-116.73,3.53
-116.65,3.79
-116.57,2.07
-116.49,0.36
-116.41,0.42
-116.33,0.47
-116.25,1.27
-116.17,2.07
-116.09,1.99
-116.01,1.9
-115.92,2.21
-115.84,2.51
-115.76,2.59
-115.68,2.67
-115.6,3.95
-115.52,1.69
-115.44,1.42
-115.36,1.15
-115.28,0.9
-115.2,0.64
-115.12,-0.49
-115.04,-1.63
-114.96,-2.83
-114.87,-4.03
-114.79,-4.49
-114.71,-1.4
-114.63,0.41
-114.55,-1.32
-114.47,-0.84
-114.39,-0.36
-114.31,-0.7
-114.23,-1.03
-114.15,-1.37
-114.07,-1.71
-113.99,-1.05
-113.91,-0.39
-113.83,0.27
-113.74,0.93
-113.66,-1.31
-113.58,-3.56
-113.5,-1.66
-113.42,0.24
-113.34,-0.19
-113.26,-0.62
-113.18,-0.17
-113.1,0.29
-113.02,0.73
-112.94,1.17
-112.86,2.5
-112.78,3.83
-112.69,3.7
-112.61,3.57
-112.53,2.55
-112.45,1.53
-112.37,0.09
-112.29,-1.35
-112.21,-3.01
-112.13,-1.13
-112.05,-0.67
-111.97,-0.21
-111.89,-1.3
-111.81,-2.39
-111.73,-0.64
-111.65,1.11
-111.56,1.09
-111.48,1.07
-111.4,-0.76
-111.32,-2.59
-111.24,-1.47
-111.16,-0.35
-111.08,-1.07
-111,-1.8
-110.92,-2.52
-110.84,-3.24
-110.76,-2.27
-110.68,-1.29
-110.6,-0.32
-110.51,0.66
-110.43,3.98
-110.35,7.3
-110.27,4.34
-110.19,1.38
-110.11,-0.54
-110.03,1.08
-109.95,0.71
-109.87,0.33
-109.79,1.39
-109.71,2.44
-109.63,2.76
-109.55,-0.47
-109.47,-2.15
-109.38,-0.29
-109.3,0.69
-109.22,-1.87
-109.14,-3.52
-109.06,-1.62
-108.98,-1.05
-108.9,-0.48
-108.82,1.58
-108.74,3.65
-108.66,2.76
-108.58,1.87
-108.5,1.44
-108.42,1.02
-108.33,-0.29
-108.25,-1.6
-108.17,-0.86
-108.09,-0.12
-108.01,-1.15
-107.93,-2.19
-107.85,-2.22
-107.77,-2.25
-107.69,-2.28
-107.61,-2.31
-107.53,1.17
-107.45,4.64
-107.37,3.84
-107.29,-0.52
-107.2,-2.79
-107.12,-1.53
-107.04,0.48
-106.96,2.48
-106.88,2.31
-106.8,2.13
-106.72,2.84
-106.64,3.56
-106.56,3.32
-106.48,3.07
-106.4,1.95
-106.32,0.82
-106.24,0.76
-106.15,0.71
-106.07,-2.31
-105.99,-5.32
-105.91,-6.81
-105.83,-8.3
-105.75,-6.73
-105.67,-5.15
-105.59,-4.76
-105.51,-2.6
-105.43,0.67
-105.35,0.4
-105.27,-1.89
-105.19,-2.41
-105.1,-0.01
-105.02,2.38
-104.94,-0.61
-104.86,-3.6
-104.78,-3.64
-104.7,-3.68
-104.62,-1.6
-104.54,0.49
-104.46,-0.38
-104.38,-1.25
-104.3,0.96
-104.22,3.17
-104.14,1.25
-104.06,-0.67
-103.97,-0.74
-103.89,-0.81
-103.81,-1.77
-103.73,-2.72
-103.65,-0.8
-103.57,1.13
-103.49,0.21
-103.41,-0.71
-103.33,-0.33
-103.25,1.81
-103.17,4.18
-103.09,3
-103.01,1.11
-102.92,0.98
-102.84,1.85
-102.76,-0.82
-102.68,-2.91
-102.6,-1.46
-102.52,-0.01
-102.44,-2.11
-102.36,-3.21
-102.28,-0.76
-102.2,0.69
-102.12,-1.4
-102.04,-2.89
-101.96,-2.6
-101.88,-2.64
-101.79,-2.69
-101.71,-1
-101.63,0.69
-101.55,1.5
-101.47,2.3
-101.39,1.23
-101.31,0.17
-101.23,-0.02
-101.15,-0.2
-101.07,-1.63
-100.99,-3.07
-100.91,-0.37
-100.83,2.33
-100.74,1.7
-100.66,1.08
-100.58,0.46
-100.5,-0.17
-100.42,1.02
-100.34,2.2
-100.26,1.61
-100.18,1.03
-100.1,3.32
-100.02,5.6
-99.94,4.94
-99.86,4.27
-99.78,2.26
-99.7,0.24
-99.61,1.15
-99.53,3.82
-99.45,4.24
-99.37,1.12
-99.29,-1.23
-99.21,-0.04
-99.13,1.03
-99.05,-1.45
-98.97,-2.72
-98.89,-2.2
-98.81,-1.86
-98.73,-1.51
-98.65,-1.05
-98.56,-0.59
-98.48,-0.57
-98.4,-0.56
-98.32,-0.54
-98.24,-0.52
-98.16,-0.99
-98.08,-1.45
-98,-1.92
-97.92,-2.38
-97.84,0.35
-97.76,3.08
-97.68,2.78
-97.6,0.71
-97.52,0.53
-97.43,2.11
-97.35,2.81
-97.27,1.74
-97.19,1.57
-97.11,3.17
-97.03,4.11
-96.95,1.51
-96.87,-1.22
-96.79,-0.41
-96.71,0.41
-96.63,-2.32
-96.55,-4.58
-96.47,-3.28
-96.38,-0.43
-96.3,-1.13
-96.22,-2.67
-96.14,-4.2
-96.06,-1.82
-95.98,0.57
-95.9,0.77
-95.82,0.97
-95.74,-1.78
-95.66,-4.53
-95.58,-3.65
-95.5,-2.78
-95.42,-1.9
-95.34,-1.02
-95.25,-1.99
-95.17,-2.96
-95.09,-0.98
-95.01,1.01
-94.93,0.69
-94.85,0.37
-94.77,0.05
-94.69,-0.27
-94.61,0.15
-94.53,0.57
-94.45,-0.78
-94.37,-2.13
-94.29,-0.87
-94.2,0.39
-94.12,1.65
-94.04,2.91
-93.96,3.14
-93.88,3.36
-93.8,3.59
-93.72,3.82
-93.64,1.99
-93.56,0.17
-93.48,0.12
-93.4,0.07
-93.32,0.24
-93.24,0.41
-93.16,0.58
-93.07,0.75
-92.99,1.64
-92.91,2.53
-92.83,1.65
-92.75,0.77
-92.67,0.63
-92.59,0.48
-92.51,2.11
-92.43,3.74
-92.35,3.73
-92.27,3.71
-92.19,3.7
-92.11,3.69
-92.02,0.92
-91.94,-1.84
-91.86,-2.84
-91.78,-3.83
-91.7,-2.51
-91.62,-1.2
-91.54,1
-91.46,3.21
-91.38,2.8
-91.3,2.4
-91.22,2
-91.14,1.6
-91.06,0.3
-90.98,-1
-90.89,-2.3
-90.81,-3.6
-90.73,-1.64
-90.65,0.33
-90.57,0.53
-90.49,0.72
-90.41,-0.34
-90.33,-1.41
-90.25,-1.59
-90.17,-1.77
-90.09,-2.41
-90.01,-3.05
-89.93,-1.92
-89.84,-0.78
-89.76,-1.73
-89.68,-2.68
-89.6,-1.86
-89.52,-1.04
-89.44,0.89
-89.36,2.83
-89.28,0.62
-89.2,-1.59
-89.12,-0.94
-89.04,-0.3
-88.96,-1.43
-88.88,-2.56
-88.8,-1.22
-88.71,0.13
-88.63,-0.3
-88.55,-0.73
-88.47,-0.21
-88.39,0.3
-88.31,0.81
-88.23,1.33
-88.15,-1.58
-88.07,-4.48
-87.99,-3.24
-87.91,-2.01
-87.83,-2.42
-87.75,-2.82
-87.66,-2.34
-87.58,-1.86
-87.5,-2.06
-87.42,-2.26
-87.34,-0.69
-87.26,0.88
-87.18,2.17
-87.1,3.46
-87.02,1.79
-86.94,0.13
-86.86,-0.04
-86.78,-0.21
-86.7,0.5
-86.62,1.22
-86.53,0.2
-86.45,-0.83
-86.37,-1.85
-86.29,-2.87
-86.21,-2.33
-86.13,-1.78
-86.05,-1.24
-85.97,-0.69
-85.89,-1.33
-85.81,-1.98
-85.73,0.34
-85.65,2.65
-85.57,2.56
-85.48,2.47
-85.4,2.38
-85.32,2.29
-85.24,1.24
-85.16,0.19
-85.08,-0.86
-85,-1.9
-84.92,-1.4
-84.84,-0.9
-84.76,-2.17
-84.68,-3.44
-84.6,-1.44
-84.52,0.55
-84.44,1.59
-84.35,-0.92
-84.27,-2.28
-84.19,-3.64
-84.11,-2.27
-84.03,-0.9
-83.95,-1.03
-83.87,-1.15
-83.79,-1.28
-83.71,-1.41
-83.63,-1.25
-83.55,-1.1
-83.47,0.82
-83.39,2.74
-83.3,2.38
-83.22,2.01
-83.14,0.54
-83.06,2.61
-82.98,2.63
-82.9,2.65
-82.82,2.67
-82.74,2.69
-82.66,3.74
-82.58,1.25
-82.5,-0.79
-82.42,-2.84
-82.34,-2.73
-82.26,0.93
-82.17,3.7
-82.09,2.93
-82.01,2.42
-81.93,1.92
-81.85,1.19
-81.77,0.46
-81.69,0.01
-81.61,-0.44
-81.53,0.66
-81.45,1.77
-81.37,3.01
-81.29,0.72
-81.21,0.42
-81.12,0.11
-81.04,-0.56
-80.96,-1.23
-80.88,-1.9
-80.8,-2.57
-80.72,-3.05
-80.64,-3.53
-80.56,-1.05
-80.48,1.43
-80.4,0.1
-80.32,-1.22
-80.24,-0.78
-80.16,-0.33
-80.07,-0.81
-79.99,-1.28
-79.91,-3.31
-79.83,-5.34
-79.75,-6.78
-79.67,-4.67
-79.59,-0.79
-79.51,-0.45
-79.43,-1.66
-79.35,-2.87
-79.27,-1.35
-79.19,0.17
-79.11,0.73
-79.03,1.3
-78.94,2.3
-78.86,-0.24
-78.78,-3.39
-78.7,-2.99
-78.62,-0.68
-78.54,1.64
-78.46,1.65
-78.38,1.66
-78.3,2.55
-78.22,3.45
-78.14,4.97
-78.06,6.5
-77.98,2.71
-77.89,-1.08
-77.81,-0.86
-77.73,-0.64
-77.65,0.16
-77.57,4.52
-77.49,6.93
-77.41,3.44
-77.33,-0.28
-77.25,-0.45
-77.17,0.06
-77.09,0.57
-77.01,2.86
-76.93,5.15
-76.85,5.92
-76.76,3.14
-76.68,3.25
-76.6,3.35
-76.52,1.82
-76.44,0.28
-76.36,-1.04
-76.28,-2.35
-76.2,-2.84
-76.12,0.22
-76.04,3.28
-75.96,2.8
-75.88,1.54
-75.8,0.28
-75.71,-1.2
-75.63,-2.68
-75.55,-2.2
-75.47,-1.72
-75.39,0.54
-75.31,2.8
-75.23,2.34
-75.15,1.89
-75.07,0.54
-74.99,-0.8
-74.91,-0.83
-74.83,-0.87
-74.75,-0.9
-74.67,-0.93
-74.58,-1.76
-74.5,-2.58
-74.42,-3.41
-74.34,-4.24
-74.26,-2.65
-74.18,-1.07
-74.1,0.51
-74.02,2.1
-73.94,1.28
-73.86,0.46
-73.78,-0.35
-73.7,-1.17
-73.62,-0.34
-73.53,0.48
-73.45,-1.65
-73.37,-3.77
-73.29,-1.97
-73.21,-0.16
-73.13,-0.13
-73.05,-0.1
-72.97,0.6
-72.89,1.29
-72.81,1.11
-72.73,0.92
-72.65,1.11
-72.57,1.31
-72.49,0.63
-72.4,-0.06
-72.32,-0.66
-72.24,-1.25
-72.16,-2.74
-72.08,-4.22
-72,-4.04
-71.92,-3.86
-71.84,-1.9
-71.76,0.05
-71.68,-0.58
-71.6,-1.2
-71.52,-1.82
-71.44,-2.44
-71.35,-0.98
-71.27,0.48
-71.19,0.17
-71.11,-0.14
-71.03,-0.44
-70.95,-0.74
-70.87,-1.92
-70.79,-3.11
-70.71,-1.64
-70.63,-0.16
-70.55,-0.46
-70.47,-0.76
-70.39,-0.15
-70.31,0.47
-70.22,0.2
-70.14,-0.07
-70.06,0.93
-69.98,1.94
-69.9,1.17
-69.82,0.4
-69.74,1.03
-69.66,1.67
-69.58,0.53
-69.5,-0.61
-69.42,-0.91
-69.34,-1.22
-69.26,-1.53
-69.17,-1.84
-69.09,-0.68
-69.01,0.47
-68.93,0.73
-68.85,1
-68.77,1.47
-68.69,1.94
-68.61,0.63
-68.53,-0.67
-68.45,1.16
-68.37,3
-68.29,0.7
-68.21,-1.6
-68.13,-2.63
-68.04,-3.66
-67.96,-2.91
-67.88,-2.17
-67.8,-0.93
-67.72,0.31
-67.64,2.44
-67.56,4.56
-67.48,1.8
-67.4,-0.97
-67.32,0.4
-67.24,1.77
-67.16,3.23
-67.08,4.69
-66.99,2.01
-66.91,-0.66
-66.83,0.24
-66.75,1.15
-66.67,0.29
-66.59,-0.58
-66.51,-1.38
-66.43,-2.18
-66.35,-2.98
-66.27,-3.77
-66.19,-3.65
-66.11,-3.53
-66.03,-1.63
-65.95,0.27
-65.86,2.32
-65.78,4.38
-65.7,3.48
-65.62,2.58
-65.54,3.03
-65.46,3.47
-65.38,3.04
-65.3,2.6
-65.22,2.12
-65.14,1.65
-65.06,-1.78
-64.98,-5.21
-64.9,-2.38
-64.81,0.45
-64.73,0.33
-64.65,0.21
-64.57,0.28
-64.49,0.36
-64.41,-1.33
-64.33,-3.02
-64.25,-1.45
-64.17,0.13
-64.09,-1.25
-64.01,-2.63
-63.93,-3.47
-63.85,-4.3
-63.77,-6.25
-63.68,-4.65
-63.6,-2.2
-63.52,0.25
-63.44,-0.03
-63.36,-0.31
-63.28,0.6
-63.2,1.5
-63.12,1.53
-63.04,1.55
-62.96,1.72
-62.88,1.89
-62.8,2.94
-62.72,4
-62.63,0.62
-62.55,-2.77
-62.47,-0.83
-62.39,1.1
-62.31,1.24
-62.23,1.39
-62.15,1.53
-62.07,1.67
-61.99,0.61
-61.91,-0.46
-61.83,0.25
-61.75,0.95
-61.67,0.11
-61.59,-0.74
-61.5,0.19
-61.42,1.12
-61.34,0.46
-61.26,-0.19
-61.18,-0.84
-61.1,-1.5
-61.02,-1.62
-60.94,-1.74
-60.86,-0.97
-60.78,-0.2
-60.7,0.41
-60.62,1.02
-60.54,-0.14
-60.45,-1.3
-60.37,-1.41
-60.29,-1.52
-60.21,-1.63
-60.13,-1.74
-60.05,-1.22
-59.97,-0.71
-59.89,2.03
-59.81,1.22
-59.73,-0.74
-59.65,0.85
-59.57,2.44
-59.49,0.48
-59.41,0.66
-59.32,4.38
-59.24,6.48
-59.16,2.67
-59.08,-0.33
-59,0.21
-58.92,1.35
-58.84,2.49
-58.76,1.42
-58.68,0.35
-58.6,-0.72
-58.52,-1.79
-58.44,-0.46
-58.36,0.87
-58.27,0.43
-58.19,-0.01
-58.11,0
-58.03,0
-57.95,-1.77
-57.87,-3.54
-57.79,-3.47
-57.71,-3.39
-57.63,-1.54
-57.55,0.31
-57.47,2.19
-57.39,4.08
-57.31,4.05
-57.23,0.47
-57.14,-1.84
-57.06,-0.6
-56.98,1.31
-56.9,-0.33
-56.82,-0.81
-56.74,-1.28
-56.66,-1.98
-56.58,-2.68
-56.5,-1.48
-56.42,-0.27
-56.34,-0.84
-56.26,-1.41
-56.18,-0.9
-56.09,-0.39
-56.01,1.89
-55.93,4.17
-55.85,2.72
-55.77,1.27
-55.69,-0.17
-55.61,-1.62
-55.53,-0.86
-55.45,-0.11
-55.37,-0.9
-55.29,-1.69
-55.21,-2.45
-55.13,0.34
-55.04,1.36
-54.96,-1.17
-54.88,-3.21
-54.8,-5.25
-54.72,-3.38
-54.64,-1.5
-54.56,-0.63
-54.48,0.25
-54.4,1.13
-54.32,2.01
-54.24,0.47
-54.16,-1.06
-54.08,-0.82
-54,-0.58
-53.91,-2.26
-53.83,-3.94
-53.75,-2.67
-53.67,-1.39
-53.59,-1.3
-53.51,-1.22
-53.43,-1.13
-53.35,-1.04
-53.27,0.93
-53.19,2.9
-53.11,-0.45
-53.03,-3.79
-52.95,-1.3
-52.86,1.2
-52.78,-0.44
-52.7,-2.08
-52.62,0.79
-52.54,3.66
-52.46,2.39
-52.38,1.12
-52.3,-0.88
-52.22,-2.89
-52.14,-1.94
-52.06,-0.99
-51.98,-1.11
-51.9,-1.23
-51.82,-1.35
-51.73,-1.47
-51.65,-1.68
-51.57,-1.9
-51.49,-0.34
-51.41,1.22
-51.33,1.42
-51.25,1.61
-51.17,0.03
-51.09,-1.55
-51.01,-3.29
-50.93,-5.02
-50.85,-2.62
-50.77,-0.22
-50.68,1.46
-50.6,3.14
-50.52,1.86
-50.44,0.59
-50.36,0.02
-50.28,-0.54
-50.2,-0.22
-50.12,0.11
-50.04,1.37
-49.96,2.63
-49.88,3.9
-49.8,5.16
-49.72,4.51
-49.64,3.86
-49.55,3.21
-49.47,2.56
-49.39,2.64
-49.31,2.73
-49.23,2.81
-49.15,2.9
-49.07,2.14
-48.99,1.38
-48.91,0.61
-48.83,-0.15
-48.75,-1.37
-48.67,-2.6
-48.59,0.31
-48.5,3.22
-48.42,3.12
-48.34,3.02
-48.26,2.03
-48.18,1.04
-48.1,1.18
-48.02,1.32
-47.94,-0.32
-47.86,-1.96
-47.78,-2.38
-47.7,-2.81
-47.62,-1.46
-47.54,-0.11
-47.46,-0.26
-47.37,-0.41
-47.29,-0.56
-47.21,-0.71
-47.13,-1.12
-47.05,-1.54
-46.97,-1.06
-46.89,-0.59
-46.81,-2.54
-46.73,-4.48
-46.65,-3.48
-46.57,-2.47
-46.49,-0.05
-46.41,2.37
-46.32,0.66
-46.24,-1.06
-46.16,-2.66
-46.08,-4.27
-46,-2.92
-45.92,-1.57
-45.84,-0.76
-45.76,0.04
-45.68,0.85
-45.6,1.65
-45.52,1.16
-45.44,0.68
-45.36,1.08
-45.28,1.47
-45.19,0.96
-45.11,0.44
-45.03,0.82
-44.95,1.19
-44.87,2.78
-44.79,4.37
-44.71,3
-44.63,1.64
-44.55,0.76
-44.47,-0.11
-44.39,-0.98
-44.31,-1.85
-44.23,-0.98
-44.14,-0.12
-44.06,-1.03
-43.98,-1.94
-43.9,-1.56
-43.82,-1.19
-43.74,-2.58
-43.66,-3.98
-43.58,-3.09
-43.5,-2.2
-43.42,0.47
-43.34,3.13
-43.26,3.33
-43.18,3.52
-43.1,1.94
-43.01,0.37
-42.93,1.23
-42.85,2.09
-42.77,1.17
-42.69,0.26
-42.61,-0.38
-42.53,-1.01
-42.45,-3.42
-42.37,-5.83
-42.29,-2.88
-42.21,0.06
-42.13,0.06
-42.05,0.05
-41.96,0.79
-41.88,1.52
-41.8,2.26
-41.72,3
-41.64,3.16
-41.56,3.33
-41.48,1.72
-41.4,0.11
-41.32,0.68
-41.24,1.26
-41.16,0.94
-41.08,0.63
-41,-0.74
-40.92,-2.11
-40.83,-1.71
-40.75,-1.3
-40.67,-1.07
-40.59,-0.85
-40.51,-0.62
-40.43,-0.4
-40.35,-0.36
-40.27,-0.32
-40.19,1.49
-40.11,3.31
-40.03,-0.01
-39.95,-3.33
-39.87,-2.52
-39.78,-1.7
-39.7,-2.95
-39.62,-4.21
-39.54,-3.69
-39.46,-3.17
-39.38,-1.11
-39.3,0.94
-39.22,0.03
-39.14,-0.87
-39.06,-0.67
-38.98,-0.46
-38.9,1.52
-38.82,3.49
-38.74,3.18
-38.65,2.87
-38.57,0.78
-38.49,-1.3
-38.41,-0.84
-38.33,-0.38
-38.25,0.08
-38.17,0.55
-38.09,1.49
-38.01,2.42
-37.93,0.41
-37.85,-1.61
-37.77,-1.22
-37.69,-0.84
-37.6,-0.46
-37.52,-0.07
-37.44,-0.16
-37.36,-0.24
-37.28,-0.33
-37.2,-0.42
-37.12,-2.15
-37.04,-3.88
-36.96,-1.47
-36.88,0.93
-36.8,0.66
-36.72,0.39
-36.64,-0.77
-36.56,-1.92
-36.47,-1.33
-36.39,-0.73
-36.31,-1.91
-36.23,-3.08
-36.15,-2.83
-36.07,-2.57
-35.99,-2.32
-35.91,-2.06
-35.83,-1.23
-35.75,-0.41
-35.67,0.42
-35.59,1.25
-35.51,2.62
-35.42,3.98
-35.34,4.47
-35.26,4.95
-35.18,1.99
-35.1,-0.96
-35.02,-0.96
-34.94,-0.96
-34.86,0.32
-34.78,1.59
-34.7,1.98
-34.62,2.37
-34.54,1.63
-34.46,0.9
-34.38,0.16
-34.29,-0.58
-34.21,1.45
-34.13,3.47
-34.05,4.65
-33.97,2.28
-33.89,0.7
-33.81,0.9
-33.73,-0.12
-33.65,-1.14
-33.57,-2.02
-33.49,-2.89
-33.41,-4.98
-33.33,-3.53
-33.24,-0.27
-33.16,1.22
-33.08,-0.2
-33,-1.63
-32.92,-0.44
-32.84,0.76
-32.76,1.07
-32.68,1.37
-32.6,0.5
-32.52,-0.37
-32.44,-0.36
-32.36,-0.35
-32.28,0.48
-32.2,1.3
-32.11,-0.61
-32.03,-2.51
-31.95,-2.19
-31.87,1.68
-31.79,2.82
-31.71,0.42
-31.63,0.21
-31.55,3.54
-31.47,2.74
-31.39,-1.61
-31.31,-3.36
-31.23,-1.56
-31.15,-0.09
-31.06,-0.4
-30.98,-0.11
-30.9,0.18
-30.82,2.13
-30.74,4.07
-30.66,2.86
-30.58,1.65
-30.5,0.45
-30.42,-0.76
-30.34,-0.52
-30.26,-0.28
-30.18,1.06
-30.1,0.64
-30.01,-0.75
-29.93,-0.36
-29.85,0.14
-29.77,-1.13
-29.69,-1.62
-29.61,1.44
-29.53,2.84
-29.45,0.69
-29.37,-1.6
-29.29,-0.35
-29.21,0.79
-29.13,-1.61
-29.05,-3.23
-28.97,-3.07
-28.88,-1.18
-28.8,0.72
-28.72,1.78
-28.64,2.84
-28.56,2.13
-28.48,1.42
-28.4,0.88
-28.32,0.35
-28.24,-1.08
-28.16,-2.5
-28.08,-1.62
-28,-0.74
-27.92,0.14
-27.83,1.03
-27.75,0.31
-27.67,-0.4
-27.59,-1.12
-27.51,-1.83
-27.43,-0.53
-27.35,0.77
-27.27,1.18
-27.19,1.59
-27.11,-1.17
-27.03,-3.94
-26.95,-3.75
-26.87,-3.56
-26.79,-4.01
-26.7,-4.47
-26.62,-2.01
-26.54,2.23
-26.46,3.83
-26.38,1.88
-26.3,-0.73
-26.22,-1.57
-26.14,-1.98
-26.06,-2.4
-25.98,-0.93
-25.9,0.54
-25.82,-0.26
-25.74,-1.06
-25.65,-0.97
-25.57,-0.89
-25.49,2.36
-25.41,5.6
-25.33,3.52
-25.25,1.45
-25.17,-0.13
-25.09,-1.71
-25.01,-1.62
-24.93,-1.54
-24.85,-0.88
-24.77,-1.99
-24.69,-4.22
-24.61,-2.89
-24.52,-0.78
-24.44,-0.43
-24.36,0.24
-24.28,0.92
-24.2,0.37
-24.12,-0.17
-24.04,-1.6
-23.96,-3.03
-23.88,-4.14
-23.8,-5.25
-23.72,-4.58
-23.64,-3.92
-23.56,-1.8
-23.47,0.32
-23.39,0.67
-23.31,1.02
-23.23,-0.3
-23.15,-1.61
-23.07,0.03
-22.99,1.67
-22.91,2.8
-22.83,3.92
-22.75,-0.27
-22.67,-4.47
-22.59,-2.11
-22.51,0.24
-22.43,0.82
-22.34,1.4
-22.26,1.62
-22.18,1.85
-22.1,1.2
-22.02,0.54
-21.94,-0.82
-21.86,-2.18
-21.78,-1.77
-21.7,-1.36
-21.62,-1.33
-21.54,-1.3
-21.46,0.49
-21.38,2.29
-21.29,4.14
-21.21,5.99
-21.13,3.7
-21.05,1.42
-20.97,0.94
-20.89,0.46
-20.81,-0.02
-20.73,-0.49
-20.65,-0.62
-20.57,-0.75
-20.49,0.9
-20.41,2.54
-20.33,3.93
-20.25,5.32
-20.16,4.93
-20.08,4.55
-20,1.95
-19.92,-0.65
-19.84,-0.3
-19.76,0.05
-19.68,-0.15
-19.6,-0.35
-19.52,-0.55
-19.44,-0.75
-19.36,-0.69
-19.28,-0.63
-19.2,-2.35
-19.11,-4.06
-19.03,-2.8
-18.95,-1.55
-18.87,-2.06
-18.79,-2.57
-18.71,-1.8
-18.63,-1.02
-18.55,-1.13
-18.47,-1.24
-18.39,0.08
-18.31,1.39
-18.23,2.71
-18.15,4.02
-18.07,1.96
-17.98,-0.09
-17.9,-2.15
-17.82,-4.21
-17.74,-2.72
-17.66,-1.23
-17.58,-0.63
-17.5,-0.03
-17.42,0.36
-17.34,0.74
-17.26,0.23
-17.18,-0.27
-17.1,-2.72
-17.02,-5.16
-16.93,-3.47
-16.85,-1.78
-16.77,-1.33
-16.69,-0.89
-16.61,-1.33
-16.53,-1.77
-16.45,-3.52
-16.37,-5.27
-16.29,-2.89
-16.21,-0.51
-16.13,-2.52
-16.05,-4.53
-15.97,-2.4
-15.89,-0.28
-15.8,0.83
-15.72,1.94
-15.64,1.28
-15.56,0.61
-15.48,0.12
-15.4,-0.37
-15.32,0.02
-15.24,0.41
-15.16,-0.36
-15.08,-1.13
-15,-1.9
-14.92,-2.67
-14.84,-1.29
-14.75,0.09
-14.67,-0.31
-14.59,-0.7
-14.51,-2.21
-14.43,-3.71
-14.35,-1.08
-14.27,1.55
-14.19,2.22
-14.11,2.89
-14.03,3.56
-13.95,4.24
-13.87,3.48
-13.79,2.73
-13.71,1.98
-13.62,1.23
-13.54,3.04
-13.46,4.85
-13.38,5.78
-13.3,6.71
-13.22,5.77
-13.14,4.83
-13.06,3
-12.98,1.17
-12.9,0.35
-12.82,-0.48
-12.74,-2.2
-12.66,-3.91
-12.57,-3.17
-12.49,-2.43
-12.41,-2.58
-12.33,-2.72
-12.25,-1.4
-12.17,-0.08
-12.09,-0.53
-12.01,-0.98
-11.93,0.99
-11.85,2.96
-11.77,0.79
-11.69,-1.37
-11.61,-0.19
-11.53,0.99
-11.44,0.41
-11.36,-0.18
-11.28,0.96
-11.2,2.11
-11.12,1.49
-11.04,0.86
-10.96,0.58
-10.88,0.3
-10.8,0.01
-10.72,-0.27
-10.64,0.37
-10.56,1.01
-10.48,1.65
-10.39,2.29
-10.31,2.59
-10.23,2.89
-10.15,3.19
-10.07,3.49
-9.99,3.64
-9.91,3.79
-9.83,2.17
-9.75,0.55
-9.67,1.83
-9.59,3.12
-9.51,2.63
-9.43,2.15
-9.35,3.47
-9.26,4.8
-9.18,3.17
-9.1,1.53
-9.02,2.56
-8.94,3.59
-8.86,4.62
-8.78,5.65
-8.7,6.23
-8.62,6.82
-8.54,7.4
-8.46,7.99
-8.38,7.04
-8.3,6.09
-8.21,8.09
-8.13,10.1
-8.05,10.02
-7.97,9.93
-7.89,8.97
-7.81,8
-7.73,9.83
-7.65,11.66
-7.57,10.53
-7.49,9.41
-7.41,9.33
-7.33,9.26
-7.25,10.07
-7.17,10.89
-7.08,12.09
-7,13.3
-6.92,13.62
-6.84,13.94
-6.76,11.47
-6.68,9
-6.6,9.49
-6.52,9.97
-6.44,11.87
-6.36,13.77
-6.28,14.78
-6.2,15.8
-6.12,15.05
-6.03,14.31
-5.95,15.34
-5.87,16.37
-5.79,17.34
-5.71,18.32
-5.63,17.52
-5.55,16.71
-5.47,17.74
-5.39,18.77
-5.31,20.68
-5.23,22.6
-5.15,22.87
-5.07,23.14
-4.98,21.63
-4.9,20.13
-4.82,21.9
-4.74,23.66
-4.66,25.43
-4.58,27.19
-4.5,29.61
-4.42,32.02
-4.34,34.43
-4.26,36.84
-4.18,37.22
-4.1,37.61
-4.02,39.76
-3.94,41.91
-3.85,44.75
-3.77,47.59
-3.69,50.42
-3.61,53.26
-3.53,55.08
-3.45,56.9
-3.37,59.61
-3.29,62.32
-3.21,66.81
-3.13,71.3
-3.05,77.56
-2.97,83.83
-2.89,88.87
-2.8,93.92
-2.72,98.08
-2.64,102.23
-2.56,105.91
-2.48,109.59
-2.4,117.41
-2.32,125.22
-2.24,134.7
-2.16,144.18
-2.08,151.88
-2,159.58
-1.92,169.14
-1.84,178.7
-1.76,187.38
-1.67,196.05
-1.59,208.18
-1.51,220.31
-1.43,231.55
-1.35,242.79
-1.27,252.11
-1.19,261.43
-1.11,271.41
-1.03,281.4
-0.95,287.58
-0.87,290.21
-0.79,291.89
-0.71,293.56
-0.62,293.12
-0.54,292.68
-0.46,290.09
-0.38,283.96
-0.3,276.36
-0.22,268.75
-0.14,259.37
-0.06,249.99
0.02,241.09
0.1,235.73
0.18,227.79
0.26,213.95
0.34,200.04
0.42,189.68
0.51,179.91
0.59,170.15
0.67,161.99
0.75,153.83
0.83,146.56
0.91,139.29
0.99,132.45
1.07,125.6
1.15,120.53
1.23,115.46
1.31,107.78
1.39,100.1
1.47,94.2
1.56,88.3
1.64,84.76
1.72,81.22
1.8,78.12
1.88,71.48
1.96,65.05
2.04,62.17
2.12,61.2
2.2,60.24
2.28,58.39
2.36,56.54
2.44,54.69
2.52,52.85
2.6,50.61
2.69,48.37
2.77,46.13
2.85,43.9
2.93,41.4
3.01,38.91
3.09,38.18
3.17,37.46
3.25,35.41
3.33,33.35
3.41,31.51
3.49,29.68
3.57,27.4
3.65,28.67
3.74,30.16
3.82,28.1
3.9,22.92
3.98,21.29
4.06,22.76
4.14,24.23
4.22,24.37
4.3,24.51
4.38,22.88
4.46,21.25
4.54,20.76
4.62,20.27
4.7,19.78
4.78,19.29
4.87,19.58
4.95,19.86
5.03,17.19
5.11,14.53
5.19,11.06
5.27,7.6
5.35,6.28
5.43,8.51
5.51,8.22
5.59,7.93
5.67,9.64
5.75,11.35
5.83,10.84
5.92,10.33
6,8.04
6.08,5.75
6.16,3.91
6.24,2.07
6.32,4.14
6.4,6.22
6.48,8.82
6.56,7.89
6.64,4.81
6.72,1.73
6.8,2.14
6.88,2.55
6.96,3.85
7.05,5.15
7.13,5.4
7.21,5.65
7.29,5.9
7.37,6.15
7.45,4.88
7.53,3.62
7.61,3.24
7.69,2.86
7.77,1.27
7.85,-0.33
7.93,2.21
8.01,4.75
8.1,6.67
8.18,8.58
8.26,6.35
8.34,4.13
8.42,3.17
8.5,2.22
8.58,1.93
8.66,1.64
8.74,2.37
8.82,-0.45
8.9,-3.27
8.98,-2.55
9.06,-1.41
9.14,-0.28
9.23,1.07
9.31,2.43
9.39,3.52
9.47,4.62
9.55,2.76
9.63,0.9
9.71,0.71
9.79,0.53
9.87,0.34
9.95,0.15
10.03,0.67
10.11,1.19
10.19,0.82
10.28,0.45
10.36,1.02
10.44,1.59
10.52,1.27
10.6,0.96
10.68,0.86
10.76,0.77
10.84,2.45
10.92,4.13
11,1.27
11.08,-1.59
11.16,0.87
11.24,3.33
11.32,2.65
11.41,1.97
11.49,1.51
11.57,1.05
11.65,-2.02
11.73,-1.54
11.81,-0.11
11.89,1.33
11.97,0.07
12.05,-1.2
12.13,-0.68
12.21,-0.17
12.29,0.88
12.37,1.94
12.46,-0.93
12.54,-3.79
12.62,-6.22
12.7,-5.11
12.78,-4.22
12.86,-3.34
12.94,-1.85
13.02,-0.36
13.1,0.24
13.18,0.84
13.26,1.8
13.34,2.75
13.42,0.97
13.5,-0.81
13.59,-2.11
13.67,0.14
13.75,2.39
13.83,1.1
13.91,-1.19
13.99,-3.49
14.07,-2.09
14.15,-0.69
14.23,2.13
14.31,1.4
14.39,-1.47
14.47,-4.34
14.55,-3.12
14.64,-1.91
14.72,-1.59
14.8,-1.26
14.88,-0.21
14.96,0.85
15.04,0.14
15.12,-0.58
15.2,-2.13
15.28,-3.67
15.36,-2.49
15.44,-1.3
15.52,-1.38
15.6,-5.01
15.68,-6.87
15.77,-5.18
15.85,-1.57
15.93,2.04
16.01,1.74
16.09,1.43
16.17,0.02
16.25,-1.39
16.33,-1.03
16.41,-0.67
16.49,0.46
16.57,1.6
16.65,2.74
16.73,3.87
16.82,2
16.9,0.12
16.98,0.02
17.06,-0.08
17.14,2.66
17.22,5.4
17.3,2.83
17.38,0.25
17.46,-0.75
17.54,-1.76
17.62,-0.99
17.7,-0.23
17.78,1.65
17.86,3.52
17.95,3.4
18.03,3.28
18.11,4.85
18.19,2.86
18.27,-2.08
18.35,-3.47
18.43,-1.54
18.51,0.39
18.59,-0.41
18.67,-1.22
18.75,-0.15
18.83,0.91
18.91,3.74
19,6.58
19.08,6.83
19.16,7.08
19.24,5.56
19.32,4.03
19.4,1.55
19.48,-0.93
19.56,-1.64
19.64,-2.35
19.72,-2.36
19.8,-2.37
19.88,-0.61
19.96,1.16
20.05,1.57
20.13,1.99
20.21,2.4
20.29,2.82
20.37,2.4
20.45,1.99
20.53,0.69
20.61,-0.62
20.69,0.71
20.77,2.03
20.85,1.59
20.93,1.14
21.01,0.12
21.09,-0.9
21.18,-2.37
21.26,-0.28
21.34,0.92
21.42,-1.42
21.5,-1.55
21.58,-1.68
21.66,-0.75
21.74,0.17
21.82,-0.67
21.9,-1.52
21.98,-0.2
22.06,1.11
22.14,3.54
22.23,2.42
22.31,1.47
22.39,0.51
22.47,-0.66
22.55,-1.84
22.63,-1.45
22.71,-1.06
22.79,-2.88
22.87,-1.17
22.95,0.77
23.03,-0.83
23.11,-2.44
23.19,-0.5
23.27,0.46
23.36,-2.14
23.44,-6.06
23.52,-4.07
23.6,-0.67
23.68,-0.8
23.76,-0.57
23.84,-0.34
23.92,-0.14
24,-3.49
24.08,-5.95
24.16,-4.87
24.24,-2.84
24.32,-0.82
24.41,-0.56
24.49,-0.31
24.57,2.97
24.65,2.71
24.73,-0.88
24.81,-4.47
24.89,-2.89
24.97,-1.31
25.05,-1.5
25.13,-1.69
25.21,-1.12
25.29,-0.56
25.37,0.45
25.45,-2.08
25.54,-4.77
25.62,-3.91
25.7,-2.31
25.78,-0.71
25.86,0.47
25.94,1.64
26.02,1.04
26.1,0.45
26.18,1.84
26.26,3.24
26.34,0.5
26.42,-2.24
26.5,-2.26
26.59,-2.29
26.67,-2.75
26.75,0.33
26.83,2.81
26.91,1.76
26.99,-0.85
27.07,0.09
27.15,0.92
27.23,1.76
27.31,1.04
27.39,0.33
27.47,2.12
27.55,3.92
27.63,4.97
27.72,2.49
27.8,-1.54
27.88,-2.02
27.96,0.23
28.04,-1.07
28.12,-2.25
28.2,-3.44
28.28,-3.07
28.36,-2.7
28.44,-1.44
28.52,-0.18
28.6,1.08
28.68,2.35
28.77,2.1
28.85,1.84
28.93,1.59
29.01,1.34
29.09,0.4
29.17,-0.53
29.25,-1.47
29.33,-2.41
29.41,-2.2
29.49,-1.99
29.57,-1.78
29.65,-1.58
29.73,-0.98
29.81,-0.39
29.9,1.76
29.98,3.91
30.06,6.53
30.14,5.62
30.22,1.59
30.3,-2.43
30.38,-3.63
30.46,-1.29
30.54,1.79
30.62,4.87
30.7,3.55
30.78,-1.31
30.86,-2.26
30.95,0.34
31.03,2.49
31.11,1.08
31.19,1.89
31.27,2.71
31.35,0.9
31.43,-0.91
31.51,1.19
31.59,3.3
31.67,4.42
31.75,2
31.83,-0.21
31.91,-2.41
31.99,-2.49
32.08,-2.56
32.16,-1.76
32.24,-0.95
32.32,-3.25
32.4,-5.55
32.48,-3.71
32.56,-1.87
32.64,-1.24
32.72,-0.6
32.8,0.93
32.88,2.45
32.96,1.96
33.04,1.47
33.13,0.32
33.21,-0.83
33.29,-0.24
33.37,3.88
33.45,4.1
33.53,0.77
33.61,1.68
33.69,6.15
33.77,6.25
33.85,2.81
33.93,-0.37
34.01,-3.56
34.09,-4.82
34.17,-2.54
34.26,-1.71
34.34,-0.88
34.42,-2.04
34.5,0.34
34.58,2.84
34.66,1.78
34.74,-0.01
34.82,-1.8
34.9,-2.14
34.98,-2.48
35.06,-1.05
35.14,0.38
35.22,0.63
35.31,0.88
35.39,1.13
35.47,1.38
35.55,0.93
35.63,0.49
35.71,0.05
35.79,-0.4
35.87,-0.21
35.95,-0.03
36.03,0.16
36.11,0.34
36.19,0.52
36.27,0.69
36.35,-0.9
36.44,-2.5
36.52,-0.42
36.6,1.65
36.68,1.96
36.76,2.26
36.84,1.52
36.92,0.78
37,0.93
37.08,1.07
37.16,2.09
37.24,3.1
37.32,-0.02
37.4,-3.15
37.49,-1.62
37.57,-0.09
37.65,-0.33
37.73,-0.57
37.81,0.02
37.89,0.61
37.97,2.97
38.05,5.33
38.13,3.08
38.21,0.84
38.29,-0.53
38.37,-1.89
38.45,-2.9
38.53,-3.91
38.62,-1.96
38.7,-0.02
38.78,1.3
38.86,2.62
38.94,2.16
39.02,1.71
39.1,0.84
39.18,-0.02
39.26,-2.62
39.34,-6.99
39.42,-8.55
39.5,-6.56
39.58,-1.66
39.67,1.47
39.75,0.47
39.83,-2.31
39.91,-3.35
39.99,-0.85
40.07,1.57
40.15,2.22
40.23,1.13
40.31,0.04
40.39,-0.92
40.47,-1.87
40.55,0.12
40.63,2.12
40.71,1.67
40.8,1.22
40.88,1.66
40.96,2.1
41.04,-0.17
41.12,-2.45
41.2,-1.77
41.28,-1.09
41.36,-1.21
41.44,-1.33
41.52,-1.44
41.6,-1.56
41.68,-1.44
41.76,-1.32
41.85,-1.2
41.93,-1.08
42.01,-0.9
42.09,-0.73
42.17,0.34
42.25,1.4
42.33,1.13
42.41,0.87
42.49,1.49
42.57,2.11
42.65,3.09
42.73,4.08
42.81,5.39
42.89,3.16
42.98,1.9
43.06,2.4
43.14,2.13
43.22,-1.69
43.3,-3.33
43.38,-1.42
43.46,1.14
43.54,0.17
43.62,-0.24
43.7,-0.64
43.78,-1.27
43.86,-1.89
43.94,-1.19
44.03,-0.48
44.11,0.22
44.19,0.93
44.27,1.41
44.35,1.89
44.43,1.26
44.51,2.41
44.59,2.28
44.67,0.37
44.75,-0.88
44.83,1.42
44.91,2.69
44.99,0.41
45.08,-2.42
45.16,-3.48
45.24,-3.41
45.32,-3.35
45.4,-3.17
45.48,-2.99
45.56,-2.18
45.64,-1.38
45.72,-0.57
45.8,0.23
45.88,0.93
45.96,1.63
46.04,2.21
46.12,2.8
46.21,2.57
46.29,0.57
46.37,-2.64
46.45,-2.32
46.53,0.49
46.61,-0.26
46.69,-2.77
46.77,-1.74
46.85,0.73
46.93,-0.35
47.01,-4.16
47.09,-4.42
47.17,-1.56
47.26,1.3
47.34,1.54
47.42,1.78
47.5,1.88
47.58,3.74
47.66,6.6
47.74,5.92
47.82,1.34
47.9,-3.24
47.98,-4.83
48.06,-2.87
48.14,-0.69
48.22,-0.28
48.3,-0.43
48.39,-0.58
48.47,0.22
48.55,1.01
48.63,-1.15
48.71,-3.3
48.79,-1.88
48.87,-0.46
48.95,0.97
49.03,2.39
49.11,2.58
49.19,2.77
49.27,0
49.35,-2.77
49.44,-1.2
49.52,0.38
49.6,0.18
49.68,-0.03
49.76,0.21
49.84,0.45
49.92,1.57
50,2.69
50.08,3.29
50.16,3.9
50.24,1.55
50.32,-0.8
50.4,-0.39
50.48,0.02
50.57,1.32
50.65,2.62
50.73,2.56
50.81,2.51
50.89,-0.49
50.97,-3.5
51.05,-4.5
51.13,-5.51
51.21,-3.56
51.29,-1.61
51.37,-1.32
51.45,-1.03
51.53,-0.75
51.62,-0.46
51.7,-1.27
51.78,-2.08
51.86,0.06
51.94,2.2
52.02,2.91
52.1,3.61
52.18,1.36
52.26,-0.89
52.34,0.66
52.42,2.22
52.5,2
52.58,1.79
52.66,0.54
52.75,-0.71
52.83,-0.19
52.91,0.33
52.99,2.74
53.07,5.15
53.15,1.05
53.23,-3.04
53.31,-2.92
53.39,-2.81
53.47,-2.69
53.55,-2.57
53.63,-1.42
53.71,-0.26
53.8,0.9
53.88,2.06
53.96,1.71
54.04,1.35
54.12,0.99
54.2,0.64
54.28,-0.05
54.36,-0.74
54.44,0.35
54.52,1.43
54.6,1.32
54.68,1.2
54.76,2.86
54.84,4.52
54.93,2.52
55.01,0.52
55.09,-0.59
55.17,-1.7
55.25,-1.7
55.33,-1.7
55.41,-3.48
55.49,-5.25
55.57,-4.29
55.65,-3.34
55.73,-1.49
55.81,0.35
55.89,-0.04
55.98,-0.43
56.06,0.96
56.14,2.34
56.22,0.49
56.3,-1.35
56.38,-1.42
56.46,-1.49
56.54,1.13
56.62,3.76
56.7,3.43
56.78,3.1
56.86,1.69
56.94,0.29
57.02,-1.11
57.11,-2.51
57.19,-2.71
57.27,-2.91
57.35,-2.23
57.43,-1.54
57.51,1.07
57.59,3.68
57.67,0.97
57.75,-1.74
57.83,-1.96
57.91,-2.18
57.99,-0.62
58.07,0.93
58.16,1.66
58.24,2.38
58.32,3.11
58.4,3.83
58.48,2.6
58.56,1.37
58.64,1.69
58.72,2.01
58.8,5.13
58.88,4.71
58.96,0.97
59.04,-2.77
59.12,-1.64
59.2,-0.5
59.29,-1.14
59.37,-1.78
59.45,0.2
59.53,2.18
59.61,-1.16
59.69,-4.49
59.77,-2.71
59.85,-0.93
59.93,-0.04
60.01,0.85
60.09,1.33
60.17,1.81
60.25,-0.66
60.34,-3.14
60.42,-2.27
60.5,-1.4
60.58,-2.31
60.66,-3.22
60.74,-2.74
60.82,-2.26
60.9,-1.78
60.98,-1.3
61.06,-2.42
61.14,-3.55
61.22,-2.91
61.3,-2.26
61.38,-0.54
61.47,1.19
61.55,4.02
61.63,3.31
61.71,2.28
61.79,1.25
61.87,1.78
61.95,2.3
62.03,1.77
62.11,1.24
62.19,0.94
62.27,0.63
62.35,-2.06
62.43,-1.2
62.52,2.61
62.6,2.87
62.68,1.61
62.76,0.35
62.84,-0.03
62.92,-0.4
63,-1.46
63.08,1.02
63.16,1.96
63.24,-0.65
63.32,-0.26
63.4,3.68
63.48,4.67
63.56,2.11
63.65,1.5
63.73,4.45
63.81,7.17
63.89,6.35
63.97,3.09
64.05,-0.17
64.13,-2.69
64.21,-1.67
64.29,-0.72
64.37,0.24
64.45,1.41
64.53,2.58
64.61,0.84
64.7,-0.9
64.78,0.32
64.86,1.53
64.94,0.33
65.02,-0.88
65.1,-1.19
65.18,-1.51
65.26,-3.52
65.34,-5.52
65.42,-4.57
65.5,-3.62
65.58,-3.57
65.66,-3.52
65.74,-5.69
65.83,-4.31
65.91,0.07
65.99,0.91
66.07,-0.39
66.15,-1.69
66.23,0.61
66.31,-0.64
66.39,-2.77
66.47,-1.36
66.55,2.12
66.63,5.59
66.71,6.33
66.79,7.07
66.88,6.52
66.96,5.97
67.04,4.53
67.12,3.1
67.2,1.78
67.28,0.46
67.36,-0.86
67.44,-2.18
67.52,-0.37
67.6,1.43
67.68,-0.91
67.76,-3.24
67.84,-3.47
67.92,-3.7
68.01,-2.15
68.09,-0.61
68.17,-0.43
68.25,-0.25
68.33,-0.07
68.41,0.1
68.49,1.49
68.57,2.88
68.65,2.49
68.73,2.11
68.81,2.37
68.89,2.63
68.97,2
69.06,1.38
69.14,-0.35
69.22,-2.07
69.3,-0.84
69.38,0.39
69.46,1.85
69.54,3.3
69.62,3.87
69.7,4.43
69.78,2.46
69.86,0.48
69.94,0.28
70.02,0.07
70.11,-0.89
70.19,-1.85
70.27,-1.82
70.35,-1.78
70.43,-2.99
70.51,-2.42
70.59,-0.75
70.67,-0.85
70.75,-3.76
70.83,-3.12
70.91,0.36
70.99,0.3
71.07,-1.52
71.15,-3.35
71.24,-2.44
71.32,-1.53
71.4,-0.17
71.48,1.18
71.56,0.76
71.64,0.34
71.72,-0.27
71.8,-0.88
71.88,-0.75
71.96,2.92
72.04,4.17
72.12,1.88
72.2,-1.19
72.29,-0.71
72.37,-1.27
72.45,-3.6
72.53,-2.8
72.61,1.55
72.69,2.45
72.77,-0.2
72.85,-1.85
72.93,0.05
73.01,0.37
73.09,-1.08
73.17,-2.65
73.25,-0.66
73.33,1.6
73.42,0.31
73.5,-1.53
73.58,-1.6
73.66,-1.35
73.74,-1.11
73.82,-1.64
73.9,-2.18
73.98,-1.77
74.06,-1.36
74.14,-1.84
74.22,-2.32
74.3,-2.37
74.38,-2.42
74.47,-1.58
74.55,-0.75
74.63,-0.59
74.71,-0.44
74.79,1.04
74.87,-1.02
74.95,-4.79
75.03,-5.02
75.11,-2.14
75.19,0.73
75.27,0.23
75.35,-0.27
75.43,0.99
75.51,2.26
75.6,1.06
75.68,-0.14
75.76,-0.12
75.84,-1.88
75.92,-5.04
76,-4.66
76.08,-1.24
76.16,0.4
76.24,0.6
76.32,0.81
76.4,3.12
76.48,1.89
76.56,-0.31
76.65,1.04
76.73,2.95
76.81,3.08
76.89,3.57
76.97,4.07
77.05,2.69
77.13,1.3
77.21,2.28
77.29,3.25
77.37,1.28
77.45,-0.7
77.53,0.2
77.61,1.1
77.69,-0.96
77.78,-3.01
77.86,-0.89
77.94,1.22
78.02,0.39
78.1,-0.45
78.18,0.03
78.26,0.51
78.34,0.76
78.42,1.02
78.5,0.43
78.58,-3.71
78.66,-5.26
78.74,-0.9
78.83,2.3
78.91,1.97
78.99,-1.14
79.07,-2.48
79.15,-0.56
79.23,1.35
79.31,0.64
79.39,-0.06
79.47,-1.24
79.55,1.13
79.63,1.51
79.71,1.89
79.79,0.95
79.87,0.02
79.96,-0.03
80.04,-0.08
80.12,1.39
80.2,2.86
80.28,2.56
80.36,2.25
80.44,2.69
80.52,3.13
80.6,0.61
80.68,-1.91
80.76,-1.17
80.84,-0.43
80.92,1.64
81.01,0.16
81.09,-2.78
81.17,-2.17
81.25,0.21
81.33,-0.95
81.41,-3.98
81.49,-3.46
81.57,-0.21
81.65,-0.51
81.73,-0.88
81.81,-1.24
81.89,1.12
81.97,3.48
82.05,3.75
82.14,4.02
82.22,2.52
82.3,1.01
82.38,0.17
82.46,-0.67
82.54,-1.95
82.62,0.32
82.7,3.85
82.78,3.85
82.86,3.1
82.94,2.35
83.02,1.29
83.1,0.23
83.19,0.06
83.27,-0.12
83.35,-1.61
83.43,-3.09
83.51,-0.44
83.59,2.2
83.67,1.66
83.75,1.11
83.83,0.57
83.91,0.02
83.99,0.1
84.07,0.18
84.15,2.04
84.23,3.89
84.32,2.07
84.4,0.25
84.48,-0.68
84.56,-1.61
84.64,-0.23
84.72,1.16
84.8,-1.58
84.88,-4.33
84.96,-4.98
85.04,-5.62
85.12,-3.31
85.2,-1
85.28,-2.2
85.37,-3.41
85.45,-3.73
85.53,-4.05
85.61,-1.47
85.69,1.11
85.77,3.69
85.85,6.27
85.93,4.68
86.01,3.08
86.09,1.05
86.17,2.56
86.25,1.72
86.33,-2.66
86.41,-5.42
86.5,-2.27
86.58,1.15
86.66,1.02
86.74,2.15
86.82,3.28
86.9,4.06
86.98,1.3
87.06,0.52
87.14,-0.25
87.22,-0.92
87.3,-1.59
87.38,-2.27
87.46,-2.94
87.55,-1.38
87.63,0.18
87.71,0.86
87.79,1.53
87.87,0.26
87.95,-1.01
88.03,-0.51
88.11,-0.01
88.19,-1.38
88.27,-2.74
88.35,-2.34
88.43,-1.93
88.51,-2.22
88.59,-2.51
88.68,-0.06
88.76,2.38
88.84,2.74
88.92,-0.45
89,-0.91
89.08,2.18
89.16,3.64
89.24,1.55
89.32,0.79
89.4,0.03
89.48,0.17
89.56,0.31
89.64,0.46
89.73,0.6
89.81,0.2
89.89,-0.21
89.97,-0.61
90.05,-1.01
90.13,-0.68
90.21,-0.34
90.29,-2.96
90.37,-5.58
90.45,-4.81
90.53,-4.03
90.61,-1.48
90.69,1.07
90.77,-0.55
90.86,-2.17
90.94,-0.84
91.02,0.49
91.1,0.3
91.18,0.1
91.26,-0.1
91.34,-0.29
91.42,-0.56
91.5,-0.83
91.58,-1.1
91.66,-1.37
91.74,-2.06
91.82,-2.74
91.91,-0.48
91.99,1.79
92.07,1.46
92.15,1.12
92.23,1.68
92.31,2.23
92.39,1.82
92.47,1.41
92.55,1
92.63,0.59
92.71,1.24
92.79,1.88
92.87,0.75
92.95,-0.38
93.04,-1.05
93.12,-1.73
93.2,-2.41
93.28,-3.08
93.36,-1.41
93.44,0.26
93.52,1.92
93.6,3.59
93.68,3.39
93.76,3.18
93.84,2.09
93.92,1
94,-0.46
94.09,-1.92
94.17,-0.43
94.25,1.06
94.33,0.97
94.41,0.87
94.49,1.67
94.57,2.46
94.65,1.05
94.73,-0.35
94.81,2.38
94.89,5.11
94.97,4.24
95.05,3.37
95.14,2.51
95.22,1.64
95.3,1.48
95.38,1.31
95.46,1.15
95.54,0.98
95.62,0.94
95.7,0.91
95.78,0.87
95.86,0.84
95.94,-0.75
96.02,-2.34
96.1,-2.15
96.18,-1.96
96.27,-3.03
96.35,-4.1
96.43,-2.22
96.51,-0.33
96.59,0.02
96.67,0.38
96.75,-1.04
96.83,-2.46
96.91,-2.24
96.99,-2.02
97.07,-0.91
97.15,0.21
97.23,0.02
97.32,-0.16
97.4,-0.34
97.48,-0.52
97.56,-1.46
97.64,-2.39
97.72,-2.44
97.8,-2.49
97.88,-0.74
97.96,1
98.04,0.97
98.12,0.94
98.2,-1.08
98.28,-3.1
98.36,-0.99
98.45,1.12
98.53,1.24
98.61,1.36
98.69,1.48
98.77,1.6
98.85,1.62
98.93,1.65
99.01,1.68
99.09,1.7
99.17,1.28
99.25,0.87
99.33,0.45
99.41,0.03
99.5,0.24
99.58,0.45
99.66,0.66
99.74,0.87
99.82,1.97
99.9,3.06
99.98,0.02
100.06,-3.02
100.14,-4.41
100.22,-5.8
100.3,-4.23
100.38,-2.67
100.46,-1.4
100.54,-0.13
100.63,1.14
100.71,2.41
100.79,0.75
100.87,-0.92
100.95,-2.59
101.03,-4.25
101.11,-1.8
101.19,0.65
101.27,0.15
101.35,-0.36
101.43,-0.55
101.51,-0.75
101.59,-1.83
101.68,-2.92
101.76,-0.77
101.84,1.38
101.92,1.76
102,2.13
102.08,1.92
102.16,1.71
102.24,1.5
102.32,1.29
102.4,1.36
102.48,1.43
102.56,0.61
102.64,-0.21
102.72,-1.83
102.81,-3.45
102.89,-3.3
102.97,-3.15
103.05,-0.04
103.13,3.07
103.21,2.04
103.29,1.01
103.37,0.36
103.45,-0.28
103.53,-0.04
103.61,0.2
103.69,1.77
103.77,3.34
103.86,3.13
103.94,2.93
104.02,1.86
104.1,0.8
104.18,0.62
104.26,0.45
104.34,0.25
104.42,0.05
104.5,0.74
104.58,1.43
104.66,0.74
104.74,0.04
104.82,0.24
104.9,0.43
104.99,-0.25
105.07,-0.93
105.15,-2.49
105.23,-4.05
105.31,-4.24
105.39,-4.42
105.47,-2.84
105.55,-1.25
105.63,-1.4
105.71,-1.55
105.79,-1.7
105.87,-1.84
105.95,-1.86
106.04,-1.88
106.12,-1.02
106.2,-0.15
106.28,0.9
106.36,1.95
106.44,0.05
106.52,-1.85
106.6,-2.14
106.68,-2.43
106.76,-1.83
106.84,-1.23
106.92,-1.76
107,-2.29
107.08,-1.04
107.17,0.21
107.25,0.27
107.33,0.33
107.41,2.17
107.49,4
107.57,2.55
107.65,1.1
107.73,2.61
107.81,4.11
107.89,2.52
107.97,0.93
108.05,-0.66
108.13,-2.26
108.22,0.42
108.3,3.09
108.38,4.88
108.46,6.67
108.54,3.9
108.62,1.12
108.7,1.3
108.78,1.48
108.86,0.78
108.94,0.07
109.02,0.25
109.1,0.44
109.18,0.26
109.26,0.08
109.35,-0.1
109.43,-0.28
109.51,0.04
109.59,0.36
109.67,0.68
109.75,1
109.83,0.94
109.91,0.89
109.99,0.84
110.07,0.78
110.15,0.32
110.23,-0.14
110.31,-0.6
110.4,-1.06
110.48,0.39
110.56,1.83
110.64,0.33
110.72,-1.18
110.8,-2.13
110.88,-3.09
110.96,-2.27
111.04,-1.45
111.12,-0.95
111.2,-0.46
111.28,-1.73
111.36,-3.01
111.44,-1.44
111.53,0.13
111.61,1.69
111.69,3.26
111.77,1.75
111.85,0.24
111.93,0.5
112.01,0.76
112.09,-1.25
112.17,-3.26
112.25,-4.31
112.33,-1.82
112.41,-1.19
112.49,-0.56
112.58,-0.59
112.66,-0.63
112.74,-1.97
112.82,-3.32
112.9,-1.71
112.98,-0.1
113.06,1.05
113.14,2.21
113.22,1.59
113.3,0.97
113.38,0.98
113.46,0.99
113.54,0.78
113.62,0.57
113.71,3.6
113.79,3.09
113.87,2.57
113.95,2.06
114.03,1.49
114.11,-2.62
114.19,-4
114.27,-1.84
114.35,1.17
114.43,0.62
114.51,1.41
114.59,2.19
114.67,-0.29
114.76,-2.78
114.84,-3.12
114.92,0.09
115,0.24
115.08,0.4
115.16,0.78
115.24,1.16
115.32,0.17
115.4,-0.82
115.48,-1.81
115.56,-2.8
115.64,-2.17
115.72,-1.55
115.8,-0.93
115.89,-0.31
115.97,-0.9
116.05,-1.5
116.13,-2.1
116.21,-2.69
116.29,-2.83
116.37,-2.96
116.45,-1.33
116.53,0.31
116.61,1.28
116.69,2.26
116.77,3.23
116.85,4.2
116.94,3.62
117.02,3.03
117.1,0.67
117.18,-1.68
117.26,-0.38
117.34,0.91
117.42,1.33
117.5,1.74
117.58,2.61
117.66,3.49
117.74,3.47
117.82,3.46
117.9,1.67
117.98,-0.11
118.07,-0.12
118.15,-0.14
118.23,0.6
118.31,1.35
118.39,-0.65
118.47,-2.64
118.55,-4.34
118.63,-2.49
118.71,1.14
118.79,1.21
118.87,0.14
118.95,-0.93
119.03,-0.44
119.12,0.04
119.2,-1.9
119.28,-3.83
119.36,-4.88
119.44,-5.94
119.52,-4.51
119.6,-3.09
119.68,-1.66
119.76,-0.24
119.84,0.21
119.92,0.65
120,1.1
120.08,1.54
120.17,1.59
120.25,1.64
120.33,1.69
120.41,1.74
120.49,1.84
120.57,1.95
120.65,2.05
120.73,2.15
120.81,1.11
120.89,0.07
120.97,-0.08
121.05,-0.24
121.13,-0.34
121.21,-0.44
121.3,0.02
121.38,2.25
121.46,2.69
121.54,-0.42
121.62,-1.86
121.7,0.24
121.78,1.68
121.86,-0.43
121.94,-1.21
122.02,-0.21
122.1,-0.32
122.18,1.35
122.26,6.01
122.35,7.12
122.43,2.36
122.51,-0.63
122.59,2.59
122.67,2.26
122.75,-2.53
122.83,-5.55
122.91,-4.47
122.99,-3.39
123.07,-1.25
123.15,0.88
123.23,-1.12
123.31,-3.13
123.39,-2.4
123.48,-1.66
123.56,-1.82
123.64,-1.97
123.72,-3
123.8,-4.02
123.88,-4.3
123.96,-1.04
124.04,1.08
124.12,-0.35
124.2,-3.33
124.28,-2.77
124.36,-1.15
124.44,0.47
124.53,1.42
124.61,2.38
124.69,-0.51
124.77,-3.39
124.85,-2.14
124.93,-0.88
125.01,1.35
125.09,3.58
125.17,1.68
125.25,-0.23
125.33,-0.79
125.41,-1.34
125.49,-1.9
125.57,-2.45
125.66,-1.98
125.74,-1.5
125.82,-1.02
125.9,-0.54
125.98,-1.66
126.06,-2.77
126.14,-0.97
126.22,2.61
126.3,3.34
126.38,0.53
126.46,-0.51
126.54,2
126.62,2.53
126.71,1.28
126.79,1.26
126.87,1.23
126.95,-0.06
127.03,-1.36
127.11,-2.66
127.19,-3.96
127.27,-2.99
127.35,-2.02
127.43,-0.17
127.51,1.69
127.59,0.75
127.67,-0.18
127.75,1.84
127.84,3.86
127.92,4.68
128,5.5
128.08,3.37
128.16,1.23
128.24,-0.94
128.32,-3.11
128.4,-1.14
128.48,0.82
128.56,0.84
128.64,0.85
128.72,0.87
128.8,0.88
128.89,1.56
128.97,2.24
129.05,1.18
129.13,-1.65
129.21,-2.22
129.29,0.76
129.37,2.07
129.45,-0.15
129.53,-1.65
129.61,0.41
129.69,1.24
129.77,0.31
129.85,2.18
129.93,4.06
130.02,2.86
130.1,1.67
130.18,2
130.26,2.32
130.34,0.87
130.42,-0.58
130.5,2.06
130.58,4.7
130.66,0.84
130.74,-3.02
130.82,-2.7
130.9,-2.39
130.98,-2.08
131.07,-1.76
131.15,-0.8
131.23,0.17
131.31,-0.64
131.39,-1.45
131.47,0.96
131.55,3.37
131.63,2.82
131.71,2.27
131.79,1.74
131.87,1.21
131.95,2.45
132.03,3.69
132.11,3.13
132.2,2.56
132.28,1.99
132.36,1.42
132.44,0.1
132.52,-1.22
132.6,-0.77
132.68,-0.32
132.76,1.23
132.84,2.79
132.92,1.39
133,0
133.08,0.8
133.16,1.6
133.25,2.4
133.33,3.2
133.41,1.19
133.49,-0.81
133.57,-1.05
133.65,-1.28
133.73,-1.54
133.81,-1.79
133.89,-2.04
133.97,-2.3
134.05,-1.11
134.13,0.08
134.21,-0.51
134.29,-1.1
134.38,-0.67
134.46,-0.24
134.54,-1.58
134.62,-2.92
134.7,-3.31
134.78,-3.69
134.86,-1.12
134.94,1.45
135.02,-0.04
135.1,-1.53
135.18,-1.25
135.26,-0.97
135.34,-0.21
135.43,0.56
135.51,0.43
135.59,0.31
135.67,-0.74
135.75,-1.79
135.83,-1.95
135.91,-2.11
135.99,-3.18
136.07,-4.25
136.15,-1.18
136.23,1.89
136.31,0.59
136.39,-0.72
136.47,-1.15
136.56,-1.57
136.64,-0.72
136.72,0.13
136.8,0.98
136.88,1.83
136.96,1.7
137.04,1.56
137.12,-0.35
137.2,-2.26
137.28,-0.25
137.36,1.75
137.44,1.99
137.52,2.22
137.61,1.84
137.69,1.46
137.77,1.08
137.85,0.71
137.93,3.21
138.01,5.71
138.09,2.9
138.17,0.08
138.25,-0.29
138.33,-0.66
138.41,-1.03
138.49,-1.39
138.57,-0.69
138.65,0.01
138.74,-3.42
138.82,-6.86
138.9,-6.25
138.98,-5.65
139.06,-3.27
139.14,-0.89
139.22,-1.19
139.3,-1.49
139.38,-0.91
139.46,-0.32
139.54,-1.51
139.62,-2.69
139.7,-2.11
139.79,-1.52
139.87,-0.95
139.95,-0.39
140.03,0.18
140.11,0.75
140.19,-0.54
140.27,-1.84
140.35,-0.18
140.43,1.48
140.51,1.46
140.59,1.44
140.67,3.2
140.75,4.95
140.83,4.17
140.92,3.4
141,1.73
141.08,0.07
141.16,0.64
141.24,1.21
141.32,1.79
141.4,2.36
141.48,1.01
141.56,-0.33
141.64,-1.68
141.72,-3.02
141.8,-1.47
141.88,0.09
141.97,0.76
142.05,1.42
142.13,2.02
142.21,2.61
142.29,1.43
142.37,0.26
142.45,-0.35
142.53,-0.96
142.61,0.21
142.69,1.38
142.77,1.1
142.85,0.82
142.93,-1.23
143.01,-3.28
143.1,-2.85
143.18,-2.43
143.26,-2
143.34,-1.58
143.42,0.4
143.5,2.38
143.58,0.21
143.66,-1.95
143.74,-3.09
143.82,-4.24
143.9,-0.06
143.98,4.11
144.06,3.16
144.15,2.21
144.23,2.14
144.31,2.07
144.39,1.86
144.47,1.65
144.55,-0.34
144.63,-2.32
144.71,-2
144.79,-1.68
144.87,-0.47
144.95,0.74
145.03,0.01
145.11,-0.73
145.2,-1.46
145.28,-2.19
145.36,-1.13
145.44,-0.07
145.52,0.98
145.6,2.04
145.68,1.32
145.76,0.6
145.84,-1.89
145.92,-4.37
146,-1.12
146.08,2.13
146.16,1.25
146.24,0.37
146.33,0.28
146.41,0.19
146.49,0.99
146.57,1.78
146.65,3.68
146.73,5.58
146.81,4.52
146.89,3.46
146.97,1.13
147.05,-1.2
147.13,-0.58
147.21,0.05
147.29,0.71
147.38,1.37
147.46,2.03
147.54,2.69
147.62,0.36
147.7,-1.97
147.78,1.01
147.86,4
147.94,0.48
148.02,-3.04
148.1,-2.42
148.18,-1.8
148.26,-0.18
148.34,1.43
148.42,3.05
148.51,4.66
148.59,5.32
148.67,5.98
148.75,4.86
148.83,3.74
148.91,4.14
148.99,4.54
149.07,3.16
149.15,1.78
149.23,-0.85
149.31,-3.48
149.39,-1.97
149.47,-0.46
149.56,-0.84
149.64,-1.22
149.72,-1.6
149.8,-1.97
149.88,-2.07
149.96,-2.17
150.04,-0.5
150.12,1.17
150.2,0.9
150.28,0.64
150.36,-0.52
150.44,-1.67
150.52,-2
150.6,-2.33
150.69,-4.44
150.77,-6.54
150.85,-6.37
150.93,-6.21
151.01,-4.26
151.09,-2.32
151.17,-3.48
151.25,-4.63
151.33,-4.01
151.41,-3.39
151.49,-0.92
151.57,1.54
151.65,2.24
151.74,2.93
151.82,1.78
151.9,0.63
151.98,1.26
152.06,1.88
152.14,0.4
152.22,-1.08
152.3,-0.79
152.38,-0.5
152.46,-0.73
152.54,-0.97
152.62,-1.2
152.7,-1.43
152.78,-1.08
152.87,-0.72
152.95,-0.36
153.03,-0.01
153.11,0.73
153.19,1.47
153.27,-0.71
153.35,-4.66
153.43,-6.58
153.51,-4.95
153.59,-1.44
153.67,-1.48
153.75,-2.08
153.83,0.85
153.92,3.57
154,2.74
154.08,0.84
154.16,-1.06
154.24,-1.41
154.32,-1.76
154.4,-0.76
154.48,0.25
154.56,-1.7
154.64,-3.65
154.72,-0.79
154.8,2.06
154.88,0.78
154.96,-0.51
155.05,-2.29
155.13,-4.07
155.21,-1.72
155.29,0.64
155.37,1.05
155.45,1.47
155.53,2.77
155.61,4.07
155.69,3.01
155.77,1.94
155.85,2.65
155.93,3.35
156.01,1.79
156.1,0.22
156.18,0.43
156.26,0.64
156.34,-0.58
156.42,-1.79
156.5,-1.23
156.58,-0.67
156.66,-0.93
156.74,-1.18
156.82,1.52
156.9,4.22
156.98,2.42
157.06,0.61
157.14,0.58
157.23,0.54
157.31,-1.04
157.39,-2.63
157.47,-2.44
157.55,-2.25
157.63,0
157.71,2.24
157.79,3.64
157.87,1.49
157.95,0.8
158.03,1.89
158.11,0.87
158.19,-0.15
158.28,-1.16
158.36,-2.16
158.44,-1.39
158.52,-0.63
158.6,0.75
158.68,2.13
158.76,0.55
158.84,-1.02
158.92,0.33
159,1.68
159.08,3.03
159.16,4.38
159.24,3.14
159.32,1.91
159.41,0.67
159.49,-0.56
159.57,0.88
159.65,2.32
159.73,0.81
159.81,-0.7
159.89,0
159.97,0.71
160.05,1.41
160.13,2.12
160.21,1.47
160.29,0.83
160.37,-0.26
160.46,2.2
160.54,4.27
160.62,2.8
160.7,1.65
160.78,2.28
160.86,2.09
160.94,1.9
161.02,1.82
161.1,1.74
161.18,1.61
161.26,1.47
161.34,1.34
161.42,1.2
161.5,2.18
161.59,3.15
161.67,4.01
161.75,4.87
161.83,3.26
161.91,-0.12
161.99,-1.77
162.07,0.12
162.15,2.85
162.23,2.03
162.31,1.66
162.39,1.28
162.47,2.12
162.55,2.97
162.64,2.04
162.72,1.11
162.8,1.72
162.88,2.34
162.96,2.95
163.04,3.56
163.12,5.61
163.2,7.67
163.28,6.77
163.36,5.87
163.44,5.2
163.52,4.54
163.6,2.11
163.68,-0.33
163.77,-0.54
163.85,-0.76
163.93,0.57
164.01,1.9
164.09,1.25
164.17,-2.95
164.25,-4.19
164.33,-1.89
164.41,1.47
164.49,4.82
164.57,5.45
164.65,6.07
164.73,4.75
164.82,3.43
164.9,3.21
164.98,3
165.06,0.83
165.14,2.2
165.22,4.46
165.3,3.18
165.38,1.87
165.46,0.55
165.54,0.79
165.62,1.03
165.7,2.66
165.78,4.28
165.86,1.77
165.95,-0.75
166.03,0.14
166.11,1.03
166.19,1.92
166.27,2.81
166.35,2.82
166.43,2.82
166.51,1.27
166.59,-0.27
166.67,-1.87
166.75,0.08
166.83,2.26
166.91,0.88
167,-2.26
167.08,-1.86
167.16,0.46
167.24,2.78
167.32,1.54
167.4,0.29
167.48,-0.95
167.56,-2.2
167.64,-0.04
167.72,2.11
167.8,2.35
167.88,-0.97
167.96,-2.48
168.04,-0.45
168.13,-0.63
168.21,-0.81
168.29,0.37
168.37,1.56
168.45,-0.21
168.53,-1.98
168.61,0.22
168.69,2.42
168.77,0.48
168.85,-1.46
168.93,-1.31
169.01,-1.16
169.09,-0.12
169.18,0.92
169.26,0.86
169.34,0.81
169.42,0.76
169.5,0.7
169.58,0.6
169.66,0.49
169.74,0.38
169.82,0.27
169.9,0.62
169.98,0.97
170.06,-0.45
170.14,-1.87
170.23,-0.67
170.31,0.54
170.39,-0.04
170.47,-0.61
170.55,-1.52
170.63,-2.43
170.71,-0.39
170.79,1.65
170.87,2.12
170.95,2.59
171.03,1.29
171.11,-0.01
171.19,0.22
171.27,0.46
171.36,-0.2
171.44,-0.85
171.52,-1.27
171.6,-1.68
171.68,-0.32
171.76,1.04
171.84,-0.08
171.92,-1.2
172,-0.54
172.08,0.12
172.16,-0.56
172.24,-1.23
172.32,-1.9
172.41,-2.57